file GRID_ISAK.DAT - Isaksen's wavelength integration grid
  KL     NOMINAL       EXACT       LOWER       UPPER
   1       186.1     186.047     185.185     186.916
   2       187.8     187.793     186.916     188.679
   3       189.6     189.573     188.679     190.476
   4       191.4     191.388     190.476     192.308
   5       193.3     193.237     192.308     194.175
   6       195.2     195.122     194.175     196.078
   7       197.1     197.044     196.078     198.020
   8       199.0     199.005     198.020     200.000
   9       201.0     201.005     200.000     202.020
  10       203.1     203.046     202.020     204.082
  11       205.2     205.128     204.082     206.186
  12       207.3     207.254     206.186     208.333
  13       209.4     209.424     208.333     210.526
  14       211.7     211.640     210.526     212.766
  15       213.9     213.904     212.766     215.054
  16       216.2     216.216     215.054     217.391
  17       218.6     218.579     217.391     219.780
  18       221.0     220.994     219.780     222.222
  19       223.5     223.464     222.222     224.719
  20       226.0     225.989     224.719     227.273
  21       228.6     228.571     227.273     229.885
  22       231.3     231.214     229.885     232.558
  23       234.0     233.918     232.558     235.294
  24       236.7     236.686     235.294     238.095
  25       239.6     239.521     238.095     240.964
  26       242.5     242.424     240.964     243.902
  27       245.4     245.399     243.902     246.914
  28       248.5     248.447     246.914     250.000
  29       251.6     251.572     250.000     253.165
  30       254.8     254.777     253.165     256.410
  31       258.2     258.065     256.410     259.740
  32       261.5     261.438     259.740     263.158
  33       265.0     264.901     263.158     266.667
  34       268.5     268.456     266.667     270.270
  35       272.2     272.109     270.270     273.973
  36       275.9     275.862     273.973     277.778
  37       279.8     279.720     277.778     281.690
  38       283.7     283.688     281.690     285.714
  39       287.8     287.770     285.714     289.855
  40       292.0     291.971     289.855     294.118
  41       296.3     296.296     294.118     298.500
  42       300.5     300.500     298.500     302.500
  43       303.0     303.000     302.500     303.500
  44       304.0     304.000     303.500     304.500
  45       305.0     305.000     304.500     305.500
  46       306.0     306.000     305.500     306.500
  47       307.0     307.000     306.500     307.500
  48       308.0     308.000     307.500     308.500
  49       309.0     309.000     308.500     309.500
  50       310.0     310.000     309.500     310.500
  51       311.0     311.000     310.500     311.500
  52       312.0     312.000     311.500     312.500
  53       313.0     313.000     312.500     313.500
  54       314.0     314.000     313.500     314.500
  55       316.0     316.000     314.500     317.500
  56       320.0     320.000     317.500     322.500
  57       325.0     325.000     322.500     327.500
  58       330.0     330.000     327.500     332.500
  59       335.0     335.000     332.500     337.500
  60       340.0     340.000     337.500     342.500
  61       345.0     345.000     342.500     347.500
  62       350.0     350.000     347.500     352.500
  63       355.0     355.000     352.500     357.500
  64       360.0     360.000     357.500     362.500
  65       365.0     365.000     362.500     367.500
  66       370.0     370.000     367.500     372.500
  67       375.0     375.000     372.500     377.500
  68       380.0     380.000     377.500     382.500
  69       385.0     385.000     382.500     387.500
  70       390.0     390.000     387.500     392.500
  71       395.0     395.000     392.500     397.500
  72       400.0     400.000     397.500     402.500
  73       405.0     405.000     402.500     407.500
  74       410.0     410.000     407.500     412.500
  75       415.0     415.000     412.500     417.500
  76       420.0     420.000     417.500     422.500
  77       425.0     425.000     422.500     427.500
  78       430.0     430.000     427.500     432.500
  79       435.0     435.000     432.500     437.500
  80       440.0     440.000     437.500     442.500
  81       445.0     445.000     442.500     447.500
  82       450.0     450.000     447.500     452.500
  83       455.0     455.000     452.500     457.500
  84       460.0     460.000     457.500     462.500
  85       465.0     465.000     462.500     467.500
  86       470.0     470.000     467.500     472.500
  87       475.0     475.000     472.500     477.500
  88       480.0     480.000     477.500     482.500
  89       485.0     485.000     482.500     487.500
  90       490.0     490.000     487.500     492.500
  91       495.0     495.000     492.500     497.500
  92       500.0     500.000     497.500     502.500
  93       505.0     505.000     502.500     507.500
  94       510.0     510.000     507.500     512.500
  95       515.0     515.000     512.500     517.500
  96       520.0     520.000     517.500     522.500
  97       525.0     525.000     522.500     527.500
  98       530.0     530.000     527.500     532.500
  99       535.0     535.000     532.500     537.500
 100       540.0     540.000     537.500     542.500
 101       545.0     545.000     542.500     547.500
 102       550.0     550.000     547.500     552.500
 103       555.0     555.000     552.500     557.500
 104       560.0     560.000     557.500     562.500
 105       565.0     565.000     562.500     567.500
 106       570.0     570.000     567.500     572.500
 107       575.0     575.000     572.500     577.500
 108       580.0     580.000     577.500     582.500
 109       585.0     585.000     582.500     587.500
 110       590.0     590.000     587.500     592.500
 111       595.0     595.000     592.500     597.500
 112       600.0     600.000     597.500     602.500
 113       605.0     605.000     602.500     607.500
 114       610.0     610.000     607.500     612.500
 115       615.0     615.000     612.500     617.500
 116       620.0     620.000     617.500     622.500
 117       625.0     625.000     622.500     627.500
 118       630.0     630.000     627.500     632.500
 119       635.0     635.000     632.500     637.500
 120       640.0     640.000     637.500     642.500
 121       644.8     644.800     642.500     647.100
 122       651.0     651.050     647.100     655.000
 123       660.0     660.000     655.000     665.000
 124       670.0     670.000     665.000     675.000
 125       680.0     680.000     675.000     685.000
 126       690.0     690.000     685.000     695.000
 127       700.0     700.000     695.000     705.000
 128       710.0     710.000     705.000     715.000
 129       720.0     720.000     715.000     725.000
 130       730.0     730.000     725.000     735.000

